Source	Mo
Tension (kV)	40
Current (uA)	500
-0.135	0.000
-0.132	0.000
-0.129	0.000
-0.126	0.000
-0.122	0.000
-0.119	0.000
-0.116	0.000
-0.113	0.000
-0.110	0.000
-0.106	0.000
-0.103	0.000
-0.100	0.000
-0.097	0.000
-0.093	0.000
-0.090	0.000
-0.087	0.000
-0.084	0.000
-0.081	0.000
-0.077	0.000
-0.074	0.000
-0.071	0.000
-0.068	0.000
-0.065	0.000
-0.061	0.000
-0.058	0.000
-0.055	0.000
-0.052	0.000
-0.049	0.000
-0.045	0.000
-0.042	0.000
-0.039	0.000
-0.036	0.000
-0.032	0.000
-0.029	0.000
-0.026	0.000
-0.023	0.000
-0.020	0.000
-0.016	0.000
-0.013	0.000
-0.010	0.000
-0.007	0.000
-0.004	0.000
-0.000	0.000
0.003	0.000
0.006	0.000
0.009	0.000
0.012	0.000
0.016	0.000
0.019	0.000
0.022	0.000
0.025	0.000
0.029	0.000
0.032	0.000
0.035	0.000
0.038	0.000
0.041	0.000
0.045	0.000
0.048	0.000
0.051	0.000
0.054	0.000
0.057	0.000
0.061	0.000
0.064	0.000
0.067	0.000
0.070	0.000
0.073	0.000
0.077	0.000
0.080	0.000
0.083	0.000
0.086	0.000
0.090	0.000
0.093	0.000
0.096	0.000
0.099	0.000
0.102	0.000
0.106	0.000
0.109	0.000
0.112	0.000
0.115	0.000
0.118	0.000
0.122	0.000
0.125	0.000
0.128	0.000
0.131	0.000
0.135	0.000
0.138	0.000
0.141	0.000
0.144	0.000
0.147	0.000
0.151	0.000
0.154	0.000
0.157	0.000
0.160	0.000
0.163	0.000
0.167	0.000
0.170	0.000
0.173	0.000
0.176	0.000
0.179	0.000
0.183	0.000
0.186	0.000
0.189	0.000
0.192	0.000
0.196	0.000
0.199	0.000
0.202	0.000
0.205	0.000
0.208	0.000
0.212	0.000
0.215	0.000
0.218	0.000
0.221	0.000
0.224	0.000
0.228	0.000
0.231	0.000
0.234	0.000
0.237	0.000
0.240	0.000
0.244	0.000
0.247	0.000
0.250	0.000
0.253	0.000
0.257	0.000
0.260	0.000
0.263	0.000
0.266	0.000
0.269	0.000
0.273	0.000
0.276	0.000
0.279	0.000
0.282	0.000
0.285	0.000
0.289	0.000
0.292	0.000
0.295	0.000
0.298	0.000
0.301	0.000
0.305	0.000
0.308	0.000
0.311	0.000
0.314	0.000
0.318	0.000
0.321	0.000
0.324	0.000
0.327	0.000
0.330	0.000
0.334	0.000
0.337	0.000
0.340	0.000
0.343	0.000
0.346	0.000
0.350	0.000
0.353	0.000
0.356	0.000
0.359	0.000
0.362	0.000
0.366	0.000
0.369	0.000
0.372	0.000
0.375	0.000
0.379	0.000
0.382	0.000
0.385	0.000
0.388	0.000
0.391	0.000
0.395	0.000
0.398	0.000
0.401	0.000
0.404	0.000
0.407	0.000
0.411	0.000
0.414	0.000
0.417	0.000
0.420	0.000
0.423	0.000
0.427	0.000
0.430	0.000
0.433	0.000
0.436	0.000
0.440	0.000
0.443	0.000
0.446	0.000
0.449	0.000
0.452	0.000
0.456	0.000
0.459	0.000
0.462	0.000
0.465	0.000
0.468	0.000
0.472	0.000
0.475	1.000
0.478	0.000
0.481	0.000
0.485	0.000
0.488	9.000
0.491	6.000
0.494	11.000
0.497	7.000
0.501	19.000
0.504	23.000
0.507	34.000
0.510	26.000
0.513	52.000
0.517	44.000
0.520	81.000
0.523	63.000
0.526	55.000
0.529	77.000
0.533	66.000
0.536	86.000
0.539	80.000
0.542	78.000
0.546	65.000
0.549	59.000
0.552	69.000
0.555	76.000
0.558	50.000
0.562	67.000
0.565	47.000
0.568	32.000
0.571	46.000
0.574	45.000
0.578	44.000
0.581	42.000
0.584	47.000
0.587	57.000
0.590	46.000
0.594	46.000
0.597	51.000
0.600	57.000
0.603	58.000
0.607	55.000
0.610	62.000
0.613	69.000
0.616	61.000
0.619	71.000
0.623	64.000
0.626	74.000
0.629	67.000
0.632	59.000
0.635	68.000
0.639	59.000
0.642	43.000
0.645	59.000
0.648	59.000
0.651	55.000
0.655	30.000
0.658	51.000
0.661	40.000
0.664	49.000
0.668	56.000
0.671	48.000
0.674	36.000
0.677	40.000
0.680	43.000
0.684	37.000
0.687	39.000
0.690	45.000
0.693	47.000
0.696	63.000
0.700	50.000
0.703	46.000
0.706	45.000
0.709	47.000
0.712	57.000
0.716	69.000
0.719	61.000
0.722	70.000
0.725	60.000
0.729	56.000
0.732	61.000
0.735	57.000
0.738	56.000
0.741	64.000
0.745	59.000
0.748	47.000
0.751	55.000
0.754	64.000
0.757	53.000
0.761	43.000
0.764	50.000
0.767	57.000
0.770	56.000
0.773	42.000
0.777	51.000
0.780	53.000
0.783	53.000
0.786	45.000
0.790	54.000
0.793	48.000
0.796	59.000
0.799	52.000
0.802	48.000
0.806	36.000
0.809	56.000
0.812	49.000
0.815	50.000
0.818	60.000
0.822	40.000
0.825	56.000
0.828	58.000
0.831	47.000
0.835	47.000
0.838	65.000
0.841	49.000
0.844	42.000
0.847	54.000
0.851	53.000
0.854	48.000
0.857	63.000
0.860	63.000
0.863	41.000
0.867	65.000
0.870	55.000
0.873	58.000
0.876	49.000
0.879	57.000
0.883	49.000
0.886	58.000
0.889	51.000
0.892	53.000
0.896	56.000
0.899	46.000
0.902	56.000
0.905	57.000
0.908	50.000
0.912	62.000
0.915	53.000
0.918	42.000
0.921	49.000
0.924	36.000
0.928	47.000
0.931	53.000
0.934	47.000
0.937	53.000
0.940	45.000
0.944	46.000
0.947	71.000
0.950	48.000
0.953	59.000
0.957	48.000
0.960	58.000
0.963	48.000
0.966	57.000
0.969	64.000
0.973	54.000
0.976	54.000
0.979	54.000
0.982	41.000
0.985	39.000
0.989	51.000
0.992	40.000
0.995	43.000
0.998	56.000
1.001	53.000
1.005	56.000
1.008	53.000
1.011	51.000
1.014	42.000
1.018	36.000
1.021	45.000
1.024	68.000
1.027	65.000
1.030	66.000
1.034	56.000
1.037	41.000
1.040	51.000
1.043	43.000
1.046	47.000
1.050	44.000
1.053	47.000
1.056	49.000
1.059	39.000
1.062	49.000
1.066	52.000
1.069	56.000
1.072	39.000
1.075	46.000
1.079	45.000
1.082	48.000
1.085	58.000
1.088	61.000
1.091	38.000
1.095	46.000
1.098	44.000
1.101	54.000
1.104	46.000
1.107	48.000
1.111	50.000
1.114	59.000
1.117	51.000
1.120	37.000
1.123	42.000
1.127	46.000
1.130	58.000
1.133	40.000
1.136	51.000
1.140	34.000
1.143	50.000
1.146	43.000
1.149	43.000
1.152	53.000
1.156	37.000
1.159	51.000
1.162	45.000
1.165	36.000
1.168	55.000
1.172	38.000
1.175	47.000
1.178	37.000
1.181	43.000
1.185	40.000
1.188	44.000
1.191	54.000
1.194	35.000
1.197	48.000
1.201	42.000
1.204	48.000
1.207	49.000
1.210	46.000
1.213	55.000
1.217	46.000
1.220	42.000
1.223	51.000
1.226	43.000
1.229	45.000
1.233	37.000
1.236	49.000
1.239	31.000
1.242	37.000
1.246	35.000
1.249	42.000
1.252	38.000
1.255	27.000
1.258	40.000
1.262	42.000
1.265	40.000
1.268	48.000
1.271	33.000
1.274	30.000
1.278	48.000
1.281	28.000
1.284	41.000
1.287	43.000
1.290	31.000
1.294	47.000
1.297	49.000
1.300	41.000
1.303	40.000
1.307	29.000
1.310	36.000
1.313	35.000
1.316	39.000
1.319	44.000
1.323	45.000
1.326	27.000
1.329	42.000
1.332	41.000
1.335	41.000
1.339	44.000
1.342	37.000
1.345	45.000
1.348	35.000
1.351	34.000
1.355	33.000
1.358	35.000
1.361	35.000
1.364	27.000
1.368	34.000
1.371	21.000
1.374	39.000
1.377	28.000
1.380	33.000
1.384	34.000
1.387	26.000
1.390	33.000
1.393	44.000
1.396	37.000
1.400	32.000
1.403	37.000
1.406	28.000
1.409	31.000
1.412	42.000
1.416	29.000
1.419	40.000
1.422	38.000
1.425	26.000
1.429	28.000
1.432	30.000
1.435	19.000
1.438	24.000
1.441	29.000
1.445	32.000
1.448	27.000
1.451	22.000
1.454	30.000
1.457	31.000
1.461	36.000
1.464	35.000
1.467	30.000
1.470	17.000
1.473	25.000
1.477	28.000
1.480	31.000
1.483	35.000
1.486	26.000
1.490	29.000
1.493	25.000
1.496	28.000
1.499	34.000
1.502	25.000
1.506	21.000
1.509	39.000
1.512	27.000
1.515	28.000
1.518	24.000
1.522	26.000
1.525	31.000
1.528	29.000
1.531	29.000
1.534	33.000
1.538	25.000
1.541	26.000
1.544	31.000
1.547	25.000
1.551	34.000
1.554	19.000
1.557	22.000
1.560	26.000
1.563	27.000
1.567	19.000
1.570	30.000
1.573	24.000
1.576	27.000
1.579	21.000
1.583	22.000
1.586	28.000
1.589	32.000
1.592	23.000
1.596	16.000
1.599	26.000
1.602	25.000
1.605	19.000
1.608	13.000
1.612	24.000
1.615	25.000
1.618	22.000
1.621	34.000
1.624	26.000
1.628	21.000
1.631	18.000
1.634	27.000
1.637	21.000
1.640	29.000
1.644	15.000
1.647	19.000
1.650	26.000
1.653	19.000
1.657	22.000
1.660	19.000
1.663	24.000
1.666	29.000
1.669	17.000
1.673	15.000
1.676	25.000
1.679	29.000
1.682	19.000
1.685	28.000
1.689	29.000
1.692	30.000
1.695	16.000
1.698	31.000
1.701	26.000
1.705	28.000
1.708	25.000
1.711	24.000
1.714	22.000
1.718	28.000
1.721	33.000
1.724	35.000
1.727	31.000
1.730	25.000
1.734	18.000
1.737	35.000
1.740	17.000
1.743	24.000
1.746	15.000
1.750	21.000
1.753	20.000
1.756	31.000
1.759	27.000
1.762	30.000
1.766	25.000
1.769	20.000
1.772	24.000
1.775	26.000
1.779	32.000
1.782	25.000
1.785	20.000
1.788	20.000
1.791	28.000
1.795	18.000
1.798	18.000
1.801	17.000
1.804	26.000
1.807	19.000
1.811	18.000
1.814	19.000
1.817	15.000
1.820	20.000
1.823	17.000
1.827	18.000
1.830	15.000
1.833	12.000
1.836	12.000
1.840	20.000
1.843	10.000
1.846	14.000
1.849	17.000
1.852	15.000
1.856	24.000
1.859	18.000
1.862	9.000
1.865	16.000
1.868	10.000
1.872	14.000
1.875	9.000
1.878	16.000
1.881	16.000
1.884	9.000
1.888	15.000
1.891	13.000
1.894	15.000
1.897	16.000
1.901	16.000
1.904	20.000
1.907	15.000
1.910	14.000
1.913	9.000
1.917	10.000
1.920	11.000
1.923	14.000
1.926	18.000
1.929	17.000
1.933	15.000
1.936	16.000
1.939	8.000
1.942	20.000
1.946	14.000
1.949	16.000
1.952	15.000
1.955	14.000
1.958	21.000
1.962	10.000
1.965	15.000
1.968	13.000
1.971	13.000
1.974	13.000
1.978	7.000
1.981	9.000
1.984	13.000
1.987	12.000
1.990	14.000
1.994	15.000
1.997	12.000
2.000	9.000
2.003	12.000
2.007	26.000
2.010	14.000
2.013	8.000
2.016	16.000
2.019	10.000
2.023	11.000
2.026	20.000
2.029	11.000
2.032	12.000
2.035	13.000
2.039	7.000
2.042	12.000
2.045	10.000
2.048	15.000
2.051	12.000
2.055	11.000
2.058	13.000
2.061	11.000
2.064	7.000
2.068	14.000
2.071	13.000
2.074	11.000
2.077	10.000
2.080	14.000
2.084	11.000
2.087	10.000
2.090	10.000
2.093	12.000
2.096	19.000
2.100	11.000
2.103	11.000
2.106	12.000
2.109	10.000
2.112	13.000
2.116	11.000
2.119	14.000
2.122	12.000
2.125	14.000
2.129	9.000
2.132	10.000
2.135	8.000
2.138	10.000
2.141	9.000
2.145	14.000
2.148	9.000
2.151	9.000
2.154	7.000
2.157	8.000
2.161	11.000
2.164	9.000
2.167	12.000
2.170	6.000
2.173	10.000
2.177	6.000
2.180	9.000
2.183	11.000
2.186	8.000
2.190	7.000
2.193	7.000
2.196	9.000
2.199	6.000
2.202	12.000
2.206	7.000
2.209	9.000
2.212	6.000
2.215	7.000
2.218	11.000
2.222	19.000
2.225	5.000
2.228	8.000
2.231	7.000
2.234	8.000
2.238	12.000
2.241	9.000
2.244	4.000
2.247	7.000
2.251	7.000
2.254	13.000
2.257	8.000
2.260	8.000
2.263	6.000
2.267	9.000
2.270	6.000
2.273	10.000
2.276	6.000
2.279	9.000
2.283	10.000
2.286	5.000
2.289	7.000
2.292	3.000
2.296	6.000
2.299	4.000
2.302	5.000
2.305	11.000
2.308	5.000
2.312	7.000
2.315	3.000
2.318	3.000
2.321	10.000
2.324	9.000
2.328	8.000
2.331	8.000
2.334	5.000
2.337	11.000
2.340	6.000
2.344	7.000
2.347	8.000
2.350	3.000
2.353	6.000
2.357	12.000
2.360	9.000
2.363	10.000
2.366	7.000
2.369	10.000
2.373	11.000
2.376	7.000
2.379	5.000
2.382	9.000
2.385	12.000
2.389	8.000
2.392	8.000
2.395	8.000
2.398	6.000
2.401	11.000
2.405	9.000
2.408	8.000
2.411	5.000
2.414	6.000
2.418	10.000
2.421	8.000
2.424	3.000
2.427	5.000
2.430	8.000
2.434	9.000
2.437	5.000
2.440	7.000
2.443	3.000
2.446	6.000
2.450	10.000
2.453	7.000
2.456	6.000
2.459	7.000
2.462	11.000
2.466	4.000
2.469	1.000
2.472	4.000
2.475	3.000
2.479	7.000
2.482	3.000
2.485	9.000
2.488	9.000
2.491	3.000
2.495	7.000
2.498	7.000
2.501	5.000
2.504	3.000
2.507	3.000
2.511	8.000
2.514	6.000
2.517	5.000
2.520	7.000
2.523	4.000
2.527	7.000
2.530	3.000
2.533	11.000
2.536	8.000
2.540	5.000
2.543	9.000
2.546	10.000
2.549	7.000
2.552	7.000
2.556	7.000
2.559	6.000
2.562	11.000
2.565	7.000
2.568	6.000
2.572	2.000
2.575	4.000
2.578	5.000
2.581	3.000
2.584	1.000
2.588	4.000
2.591	3.000
2.594	3.000
2.597	5.000
2.601	7.000
2.604	3.000
2.607	5.000
2.610	8.000
2.613	3.000
2.617	9.000
2.620	5.000
2.623	6.000
2.626	7.000
2.629	11.000
2.633	9.000
2.636	4.000
2.639	8.000
2.642	3.000
2.646	8.000
2.649	4.000
2.652	4.000
2.655	10.000
2.658	3.000
2.662	9.000
2.665	1.000
2.668	6.000
2.671	6.000
2.674	5.000
2.678	7.000
2.681	10.000
2.684	3.000
2.687	3.000
2.690	6.000
2.694	10.000
2.697	7.000
2.700	8.000
2.703	8.000
2.707	3.000
2.710	3.000
2.713	4.000
2.716	4.000
2.719	6.000
2.723	5.000
2.726	6.000
2.729	6.000
2.732	4.000
2.735	6.000
2.739	6.000
2.742	4.000
2.745	4.000
2.748	4.000
2.751	5.000
2.755	5.000
2.758	9.000
2.761	4.000
2.764	9.000
2.768	5.000
2.771	11.000
2.774	4.000
2.777	1.000
2.780	3.000
2.784	5.000
2.787	5.000
2.790	6.000
2.793	4.000
2.796	9.000
2.800	4.000
2.803	3.000
2.806	3.000
2.809	9.000
2.812	4.000
2.816	4.000
2.819	9.000
2.822	5.000
2.825	4.000
2.829	6.000
2.832	7.000
2.835	6.000
2.838	3.000
2.841	4.000
2.845	4.000
2.848	6.000
2.851	4.000
2.854	1.000
2.857	3.000
2.861	7.000
2.864	9.000
2.867	1.000
2.870	8.000
2.873	9.000
2.877	5.000
2.880	4.000
2.883	6.000
2.886	4.000
2.890	4.000
2.893	7.000
2.896	1.000
2.899	4.000
2.902	4.000
2.906	4.000
2.909	7.000
2.912	4.000
2.915	6.000
2.918	3.000
2.922	4.000
2.925	8.000
2.928	3.000
2.931	3.000
2.934	7.000
2.938	4.000
2.941	7.000
2.944	5.000
2.947	13.000
2.951	5.000
2.954	4.000
2.957	7.000
2.960	6.000
2.963	3.000
2.967	0.000
2.970	4.000
2.973	3.000
2.976	3.000
2.979	4.000
2.983	2.000
2.986	4.000
2.989	8.000
2.992	5.000
2.996	4.000
2.999	7.000
3.002	4.000
3.005	4.000
3.008	5.000
3.012	4.000
3.015	5.000
3.018	6.000
3.021	5.000
3.024	6.000
3.028	6.000
3.031	3.000
3.034	5.000
3.037	1.000
3.040	4.000
3.044	1.000
3.047	4.000
3.050	1.000
3.053	5.000
3.057	1.000
3.060	5.000
3.063	6.000
3.066	10.000
3.069	3.000
3.073	7.000
3.076	6.000
3.079	10.000
3.082	9.000
3.085	4.000
3.089	3.000
3.092	6.000
3.095	3.000
3.098	4.000
3.101	5.000
3.105	2.000
3.108	4.000
3.111	10.000
3.114	4.000
3.118	7.000
3.121	3.000
3.124	4.000
3.127	0.000
3.130	5.000
3.134	5.000
3.137	3.000
3.140	2.000
3.143	6.000
3.146	4.000
3.150	3.000
3.153	8.000
3.156	6.000
3.159	3.000
3.162	4.000
3.166	5.000
3.169	4.000
3.172	6.000
3.175	0.000
3.179	5.000
3.182	5.000
3.185	6.000
3.188	3.000
3.191	4.000
3.195	4.000
3.198	7.000
3.201	4.000
3.204	6.000
3.207	3.000
3.211	2.000
3.214	2.000
3.217	2.000
3.220	3.000
3.223	2.000
3.227	4.000
3.230	3.000
3.233	9.000
3.236	6.000
3.240	4.000
3.243	6.000
3.246	2.000
3.249	5.000
3.252	6.000
3.256	5.000
3.259	4.000
3.262	7.000
3.265	7.000
3.268	6.000
3.272	1.000
3.275	4.000
3.278	2.000
3.281	3.000
3.284	1.000
3.288	1.000
3.291	5.000
3.294	2.000
3.297	2.000
3.301	10.000
3.304	3.000
3.307	3.000
3.310	7.000
3.313	5.000
3.317	2.000
3.320	2.000
3.323	5.000
3.326	2.000
3.329	8.000
3.333	2.000
3.336	3.000
3.339	5.000
3.342	6.000
3.346	3.000
3.349	4.000
3.352	4.000
3.355	7.000
3.358	6.000
3.362	3.000
3.365	4.000
3.368	5.000
3.371	5.000
3.374	4.000
3.378	1.000
3.381	6.000
3.384	5.000
3.387	2.000
3.390	3.000
3.394	3.000
3.397	6.000
3.400	4.000
3.403	4.000
3.407	5.000
3.410	5.000
3.413	5.000
3.416	4.000
3.419	9.000
3.423	4.000
3.426	4.000
3.429	5.000
3.432	1.000
3.435	5.000
3.439	5.000
3.442	2.000
3.445	5.000
3.448	7.000
3.451	4.000
3.455	7.000
3.458	3.000
3.461	7.000
3.464	1.000
3.468	2.000
3.471	1.000
3.474	5.000
3.477	2.000
3.480	5.000
3.484	5.000
3.487	3.000
3.490	5.000
3.493	5.000
3.496	3.000
3.500	1.000
3.503	1.000
3.506	6.000
3.509	3.000
3.512	5.000
3.516	5.000
3.519	6.000
3.522	6.000
3.525	5.000
3.529	3.000
3.532	2.000
3.535	1.000
3.538	3.000
3.541	11.000
3.545	5.000
3.548	2.000
3.551	2.000
3.554	4.000
3.557	2.000
3.561	2.000
3.564	4.000
3.567	3.000
3.570	2.000
3.573	6.000
3.577	0.000
3.580	3.000
3.583	2.000
3.586	5.000
3.590	3.000
3.593	5.000
3.596	3.000
3.599	2.000
3.602	8.000
3.606	2.000
3.609	1.000
3.612	6.000
3.615	3.000
3.618	1.000
3.622	3.000
3.625	3.000
3.628	6.000
3.631	1.000
3.634	3.000
3.638	6.000
3.641	9.000
3.644	1.000
3.647	4.000
3.651	7.000
3.654	6.000
3.657	5.000
3.660	0.000
3.663	0.000
3.667	3.000
3.670	2.000
3.673	1.000
3.676	2.000
3.679	4.000
3.683	6.000
3.686	5.000
3.689	2.000
3.692	3.000
3.696	2.000
3.699	5.000
3.702	3.000
3.705	1.000
3.708	6.000
3.712	3.000
3.715	6.000
3.718	4.000
3.721	4.000
3.724	4.000
3.728	1.000
3.731	1.000
3.734	3.000
3.737	6.000
3.740	4.000
3.744	3.000
3.747	2.000
3.750	2.000
3.753	3.000
3.757	2.000
3.760	5.000
3.763	3.000
3.766	2.000
3.769	4.000
3.773	2.000
3.776	4.000
3.779	4.000
3.782	1.000
3.785	7.000
3.789	4.000
3.792	4.000
3.795	5.000
3.798	6.000
3.801	4.000
3.805	4.000
3.808	4.000
3.811	1.000
3.814	1.000
3.818	4.000
3.821	2.000
3.824	4.000
3.827	3.000
3.830	6.000
3.834	2.000
3.837	2.000
3.840	1.000
3.843	1.000
3.846	2.000
3.850	3.000
3.853	3.000
3.856	0.000
3.859	4.000
3.862	2.000
3.866	0.000
3.869	0.000
3.872	5.000
3.875	5.000
3.879	2.000
3.882	6.000
3.885	2.000
3.888	4.000
3.891	2.000
3.895	3.000
3.898	7.000
3.901	2.000
3.904	3.000
3.907	3.000
3.911	2.000
3.914	3.000
3.917	3.000
3.920	0.000
3.923	2.000
3.927	2.000
3.930	4.000
3.933	3.000
3.936	3.000
3.940	6.000
3.943	1.000
3.946	1.000
3.949	4.000
3.952	5.000
3.956	5.000
3.959	2.000
3.962	0.000
3.965	1.000
3.968	0.000
3.972	3.000
3.975	4.000
3.978	1.000
3.981	2.000
3.984	3.000
3.988	3.000
3.991	4.000
3.994	6.000
3.997	3.000
4.001	3.000
4.004	4.000
4.007	3.000
4.010	6.000
4.013	2.000
4.017	8.000
4.020	4.000
4.023	1.000
4.026	7.000
4.029	3.000
4.033	1.000
4.036	3.000
4.039	2.000
4.042	3.000
4.046	0.000
4.049	2.000
4.052	4.000
4.055	3.000
4.058	4.000
4.062	4.000
4.065	0.000
4.068	5.000
4.071	0.000
4.074	3.000
4.078	2.000
4.081	1.000
4.084	2.000
4.087	3.000
4.090	2.000
4.094	3.000
4.097	2.000
4.100	2.000
4.103	5.000
4.107	4.000
4.110	3.000
4.113	3.000
4.116	5.000
4.119	1.000
4.123	2.000
4.126	3.000
4.129	2.000
4.132	1.000
4.135	0.000
4.139	1.000
4.142	2.000
4.145	4.000
4.148	4.000
4.151	1.000
4.155	6.000
4.158	2.000
4.161	1.000
4.164	4.000
4.168	2.000
4.171	2.000
4.174	4.000
4.177	6.000
4.180	2.000
4.184	3.000
4.187	1.000
4.190	1.000
4.193	1.000
4.196	3.000
4.200	4.000
4.203	3.000
4.206	0.000
4.209	6.000
4.212	1.000
4.216	3.000
4.219	3.000
4.222	2.000
4.225	5.000
4.229	2.000
4.232	3.000
4.235	2.000
4.238	0.000
4.241	4.000
4.245	1.000
4.248	4.000
4.251	3.000
4.254	3.000
4.257	2.000
4.261	1.000
4.264	6.000
4.267	5.000
4.270	0.000
4.273	3.000
4.277	5.000
4.280	3.000
4.283	2.000
4.286	1.000
4.290	2.000
4.293	3.000
4.296	2.000
4.299	2.000
4.302	1.000
4.306	3.000
4.309	3.000
4.312	1.000
4.315	2.000
4.318	5.000
4.322	6.000
4.325	2.000
4.328	3.000
4.331	2.000
4.334	3.000
4.338	2.000
4.341	6.000
4.344	3.000
4.347	3.000
4.351	0.000
4.354	2.000
4.357	3.000
4.360	0.000
4.363	1.000
4.367	1.000
4.370	1.000
4.373	6.000
4.376	2.000
4.379	1.000
4.383	5.000
4.386	5.000
4.389	7.000
4.392	5.000
4.396	3.000
4.399	2.000
4.402	5.000
4.405	2.000
4.408	3.000
4.412	2.000
4.415	6.000
4.418	1.000
4.421	1.000
4.424	1.000
4.428	2.000
4.431	2.000
4.434	0.000
4.437	5.000
4.440	4.000
4.444	2.000
4.447	4.000
4.450	3.000
4.453	3.000
4.457	4.000
4.460	2.000
4.463	5.000
4.466	2.000
4.469	4.000
4.473	4.000
4.476	2.000
4.479	2.000
4.482	2.000
4.485	3.000
4.489	6.000
4.492	4.000
4.495	2.000
4.498	4.000
4.501	1.000
4.505	3.000
4.508	3.000
4.511	2.000
4.514	4.000
4.518	1.000
4.521	5.000
4.524	2.000
4.527	0.000
4.530	2.000
4.534	3.000
4.537	2.000
4.540	2.000
4.543	0.000
4.546	4.000
4.550	2.000
4.553	3.000
4.556	7.000
4.559	3.000
4.562	0.000
4.566	4.000
4.569	2.000
4.572	3.000
4.575	6.000
4.579	2.000
4.582	3.000
4.585	3.000
4.588	1.000
4.591	3.000
4.595	2.000
4.598	0.000
4.601	2.000
4.604	3.000
4.607	2.000
4.611	3.000
4.614	3.000
4.617	3.000
4.620	5.000
4.623	2.000
4.627	3.000
4.630	0.000
4.633	3.000
4.636	6.000
4.640	2.000
4.643	3.000
4.646	1.000
4.649	2.000
4.652	4.000
4.656	3.000
4.659	4.000
4.662	3.000
4.665	4.000
4.668	4.000
4.672	5.000
4.675	2.000
4.678	3.000
4.681	3.000
4.684	2.000
4.688	4.000
4.691	0.000
4.694	5.000
4.697	2.000
4.701	3.000
4.704	2.000
4.707	1.000
4.710	2.000
4.713	4.000
4.717	2.000
4.720	0.000
4.723	1.000
4.726	3.000
4.729	2.000
4.733	0.000
4.736	2.000
4.739	6.000
4.742	2.000
4.745	6.000
4.749	1.000
4.752	1.000
4.755	2.000
4.758	6.000
4.762	3.000
4.765	3.000
4.768	3.000
4.771	2.000
4.774	2.000
4.778	2.000
4.781	1.000
4.784	1.000
4.787	2.000
4.790	1.000
4.794	5.000
4.797	3.000
4.800	4.000
4.803	3.000
4.807	1.000
4.810	3.000
4.813	1.000
4.816	1.000
4.819	1.000
4.823	1.000
4.826	1.000
4.829	2.000
4.832	2.000
4.835	1.000
4.839	3.000
4.842	1.000
4.845	2.000
4.848	2.000
4.851	2.000
4.855	1.000
4.858	2.000
4.861	0.000
4.864	3.000
4.868	5.000
4.871	4.000
4.874	0.000
4.877	0.000
4.880	3.000
4.884	0.000
4.887	1.000
4.890	1.000
4.893	4.000
4.896	3.000
4.900	1.000
4.903	4.000
4.906	3.000
4.909	0.000
4.912	4.000
4.916	2.000
4.919	2.000
4.922	2.000
4.925	3.000
4.929	1.000
4.932	1.000
4.935	2.000
4.938	6.000
4.941	1.000
4.945	3.000
4.948	7.000
4.951	4.000
4.954	3.000
4.957	3.000
4.961	3.000
4.964	1.000
4.967	4.000
4.970	0.000
4.973	4.000
4.977	2.000
4.980	4.000
4.983	4.000
4.986	0.000
4.990	2.000
4.993	3.000
4.996	0.000
4.999	2.000
5.002	1.000
5.006	3.000
5.009	1.000
5.012	4.000
5.015	3.000
5.018	1.000
5.022	0.000
5.025	5.000
5.028	4.000
5.031	0.000
5.034	3.000
5.038	1.000
5.041	2.000
5.044	0.000
